 % Controller vroll
% Log with 1500 values (sample interval=0.1ms)
% Uses separate derivative input (gyro) 0
% data format:
% 1   Time (ms)
% 2   Control reference input (setpoint) (r)
% 3   after pre-filter (r2)
% 4   error after Kp (ep)
% 5   error after Kp and lead/lag, before I (up)
% 6   integrator output (ui)
% 7   Controller output (u) after limiter
% 8   measurement (m)
% 9   measurement after filter (m2)
% 10  Feed forward output (uf)
% 
14.63 -0.53052 -0.53052 -72.49742 -72.50 0.00 -72.50 23.63529 23.63529 0.00000
39.66 -0.51852 -0.51852 61.03852 61.04 0.00 61.04 -20.86470 -20.86470 0.00000
64.61 -0.65220 -0.65220 -33.29994 -33.30 0.00 -33.30 10.44778 10.44778 0.00000
89.64 -1.05886 -1.05886 -39.58246 -39.58 0.00 -39.58 12.13529 12.13529 0.00000
114.64 -0.30020 -0.30020 65.81852 65.82 0.00 65.82 -22.23971 -22.23971 0.00000
139.64 -1.14254 -1.14254 -67.39599 -67.40 0.00 -67.40 21.32279 21.32279 0.00000
164.64 -0.00808 -0.00808 46.25737 46.26 0.00 46.26 -15.42720 -15.42720 0.00000
189.61 -0.25669 -0.25669 1.82410 1.82 0.00 1.82 -0.86472 -0.86472 0.00000
214.61 -0.03756 -0.03756 -33.14357 -33.14 0.00 -33.14 11.01029 11.01029 0.00000
239.61 0.16585 0.16585 66.46670 66.47 0.00 66.47 -21.98971 -21.98971 0.00000
264.64 -0.15858 -0.15858 -44.19411 -44.19 0.00 -44.19 14.57279 14.57279 0.00000
289.61 0.19139 0.19139 10.85578 10.86 0.00 10.86 -3.42720 -3.42720 0.00000
314.63 -0.12798 -0.12798 6.52273 6.52 0.00 6.52 -2.30222 -2.30222 0.00000
339.62 -0.88639 -0.88639 -82.00255 -82.00 0.00 -82.00 26.44779 26.44779 0.00000
364.64 -0.14760 -0.14760 48.08887 48.09 0.00 48.09 -16.17723 -16.17723 0.00000
389.61 -0.21932 -0.21932 -48.87632 -48.88 0.00 -48.88 16.07278 16.07278 0.00000
414.64 -0.29181 -0.29181 40.90625 40.91 0.00 40.91 -13.92723 -13.92723 0.00000
439.65 -0.38545 -0.38545 -52.74972 -52.75 0.00 -52.75 17.19779 17.19779 0.00000
464.63 -0.51814 -0.51814 46.03972 46.04 0.00 46.04 -15.86471 -15.86471 0.00000
489.61 -0.64343 -0.64343 -65.14866 -65.15 0.00 -65.15 21.07279 21.07279 0.00000
514.64 -0.42196 -0.42196 41.82825 41.83 0.00 41.83 -14.36471 -14.36471 0.00000
539.61 -0.72447 -0.72447 -42.32925 -42.33 0.00 -42.33 13.38528 13.38528 0.00000
564.64 -0.33237 -0.33237 45.65948 45.66 0.00 45.66 -15.55220 -15.55220 0.00000
589.66 -0.57410 -0.57410 -32.69065 -32.69 0.00 -32.69 10.32279 10.32279 0.00000
614.65 -0.95979 -0.95979 51.46473 51.46 0.00 51.46 -18.11470 -18.11470 0.00000
639.61 -0.45970 -0.45970 -46.97244 -46.97 0.00 -46.97 15.19778 15.19778 0.00000
664.61 -0.12739 -0.12739 63.14945 63.15 0.00 63.15 -21.17721 -21.17721 0.00000
689.66 -0.48524 -0.48524 -42.17406 -42.17 0.00 -42.17 13.57278 13.57278 0.00000
714.61 -0.04484 -0.04484 60.39709 60.40 0.00 60.40 -20.17720 -20.17720 0.00000
739.62 -0.34847 -0.34847 -59.57628 -59.58 0.00 -59.58 19.51029 19.51029 0.00000
764.61 -0.70299 -0.70299 76.23515 76.24 0.00 76.24 -26.11471 -26.11471 0.00000
789.62 -0.39084 -0.39084 -55.76588 -55.77 0.00 -55.77 18.19778 18.19778 0.00000
814.76 -0.22162 -0.22162 -57.32077 -57.32 0.00 -57.32 18.88530 18.88530 0.00000
839.73 0.02564 0.02564 67.54604 67.55 0.00 67.55 -22.48971 -22.48971 0.00000
864.67 -0.92857 -0.92857 -9.75404 -9.75 0.00 -9.75 2.32277 2.32277 0.00000
889.61 -0.15241 -0.15241 -63.30057 -63.30 0.00 -63.30 20.94778 20.94778 0.00000
914.61 -0.55202 -0.55202 21.18801 21.19 0.00 21.19 -7.61469 -7.61469 0.00000
939.63 -0.00159 -0.00159 38.21442 38.21 0.00 38.21 -12.73973 -12.73973 0.00000
964.43 -0.25821 -0.25821 -43.93049 -43.93 0.00 -43.93 14.38528 14.38528 0.00000
989.65 -0.21824 -0.21824 -27.31060 -27.31 0.00 -27.31 8.88529 8.88529 0.00000
1014.63 -0.20329 -0.20329 60.67173 60.67 0.00 60.67 -20.42720 -20.42720 0.00000
1039.61 -0.38612 -0.38612 5.56081 5.56 0.00 5.56 -2.23973 -2.23973 0.00000
1064.64 -0.39315 -0.39315 -72.08531 -72.09 0.00 -72.09 23.63529 23.63529 0.00000
1089.62 -0.03183 -0.03183 49.93607 49.94 0.00 49.94 -16.67718 -16.67718 0.00000
1114.62 2.55231 2.55231 35.00112 35.00 0.00 35.00 -9.11473 -9.11473 0.00000
1139.61 8.34901 8.34901 -51.48382 -51.48 0.00 -51.48 25.51028 25.51028 0.00000
1164.63 17.84964 17.84964 46.58052 46.58 0.00 46.58 2.32280 2.32280 0.00000
1189.65 31.61783 31.61783 111.32263 111.32 0.00 111.32 -5.48971 -5.48971 0.00000
1214.66 35.00677 35.00677 73.30196 73.30 0.00 73.30 10.57278 10.57278 0.00000
1239.63 47.80999 47.80999 100.27411 100.27 0.00 100.27 14.38529 14.38529 0.00000
1264.65 54.27795 54.27795 77.30301 77.30 0.00 77.30 28.51028 28.51028 0.00000
1289.63 55.84200 55.84200 79.74516 79.75 0.00 79.75 29.26028 29.26028 0.00000
1314.63 53.21275 53.21275 27.79491 27.79 0.00 27.79 43.94778 43.94778 0.00000
1339.61 49.93243 49.93243 37.64146 37.64 0.00 37.64 37.38528 37.38528 0.00000
1364.63 46.38533 46.38533 -35.43732 -35.44 0.00 -35.44 58.19777 58.19777 0.00000
1389.62 42.40697 42.40697 -37.43488 -37.43 0.00 -37.43 54.88527 54.88527 0.00000
1414.82 38.36971 38.36971 -66.42169 -66.42 0.00 -66.42 60.51028 60.51028 0.00000
1439.64 33.97517 33.97517 -16.41790 -16.42 0.00 -16.42 39.44781 39.44781 0.00000
1464.63 29.78839 29.78839 -103.04071 -103.04 0.00 -103.04 64.13529 64.13529 0.00000
1489.61 26.48398 26.48398 -73.20387 -73.20 0.00 -73.20 50.88527 50.88527 0.00000
1514.82 23.39424 23.39424 -20.22317 -20.22 0.00 -20.22 30.13529 30.13529 0.00000
1539.63 20.50618 20.50618 -6.38729 -6.39 0.00 -6.39 22.63528 22.63528 0.00000
1564.85 18.49326 18.49326 -52.36362 -52.36 0.00 -52.36 35.94780 35.94780 0.00000
1589.62 17.09840 17.09840 1.20183 1.20 0.00 1.20 16.69779 16.69779 0.00000
1614.84 15.96348 15.96348 8.85956 8.86 0.00 8.86 13.01029 13.01029 0.00000
1639.62 15.53274 15.53274 19.19236 19.19 0.00 19.19 9.13529 9.13529 0.00000
1664.82 14.96080 14.96080 28.53902 28.54 0.00 28.54 5.44779 5.44779 0.00000
1689.64 14.65540 14.65540 33.81035 33.81 0.00 33.81 3.38529 3.38529 0.00000
1714.84 14.21437 14.21437 33.61224 33.61 0.00 33.61 3.01029 3.01029 0.00000
1739.65 13.99008 13.99008 29.93937 29.94 0.00 29.94 4.01029 4.01029 0.00000
1764.82 13.97391 13.97391 29.51587 29.52 0.00 29.52 4.13529 4.13529 0.00000
1789.64 13.36580 13.36580 7.62903 7.63 0.00 7.63 10.82279 10.82279 0.00000
1814.86 12.90611 12.90611 28.74996 28.75 0.00 28.75 3.32279 3.32279 0.00000
1839.63 12.01527 12.01527 -22.86006 -22.86 0.00 -22.86 19.63529 19.63529 0.00000
1864.82 11.24126 11.24126 47.00542 47.01 0.00 47.01 -4.42721 -4.42721 0.00000
1889.65 9.84737 9.84737 -50.17628 -50.18 0.00 -50.18 26.57279 26.57279 0.00000
1914.85 9.20558 9.20558 32.46088 32.46 0.00 32.46 -1.61472 -1.61472 0.00000
1939.64 8.40866 8.40866 -22.99239 -22.99 0.00 -22.99 16.07279 16.07279 0.00000
1964.85 7.53930 7.53930 -6.28791 -6.29 0.00 -6.29 9.63527 9.63527 0.00000
1989.65 7.16642 7.16642 10.21835 10.22 0.00 10.22 3.76030 3.76030 0.00000
2014.87 6.28219 6.28219 -16.43430 -16.43 0.00 -16.43 11.76029 11.76029 0.00000
2039.65 6.16158 6.16158 34.20383 34.20 0.00 34.20 -5.23970 -5.23970 0.00000
2064.83 5.60395 5.60395 -34.21901 -34.22 0.00 -34.22 17.01029 17.01029 0.00000
2089.62 5.46288 5.46288 43.35775 43.36 0.00 43.36 -8.98970 -8.98970 0.00000
2114.94 5.25493 5.25493 56.60893 56.61 0.00 56.61 -13.61471 -13.61471 0.00000
2139.69 4.88079 4.88079 -14.63845 -14.64 0.00 -14.64 9.76027 9.76027 0.00000
2164.85 5.01195 5.01195 -25.49504 -25.50 0.00 -25.50 13.51029 13.51029 0.00000
2189.63 4.96786 4.96786 44.68514 44.69 0.00 44.69 -9.92718 -9.92718 0.00000
2214.86 4.81479 4.81479 46.28854 46.29 0.00 46.29 -10.61473 -10.61473 0.00000
2239.67 4.60273 4.60273 -43.97266 -43.97 0.00 -43.97 19.26029 19.26029 0.00000
2264.86 4.76440 4.76440 21.38730 21.39 0.00 21.39 -2.36469 -2.36469 0.00000
2289.63 4.56903 4.56903 69.92625 69.93 0.00 69.93 -18.73972 -18.73972 0.00000
2314.87 4.25926 4.25926 -54.94059 -54.94 0.00 -54.94 22.57279 22.57279 0.00000
2339.62 4.29607 4.29607 14.91981 14.92 0.00 14.92 -0.67720 -0.67720 0.00000
2364.87 3.97807 3.97807 64.21586 64.22 0.00 64.22 -17.42722 -17.42722 0.00000
2389.67 -17.60225 -17.60225 -96.52510 -96.53 0.00 -96.53 14.57278 14.57278 0.00000
2414.83 -38.45784 -38.45784 -103.77940 -103.78 0.00 -103.78 -3.86471 -3.86471 0.00000
2439.65 -56.24478 -56.24478 -178.51520 -178.52 0.00 -178.52 3.26029 3.26029 0.00000
2464.82 -55.10777 -55.10777 -104.60416 -104.60 0.00 -104.60 -20.23971 -20.23971 0.00000
2489.63 -54.51625 -54.51625 -111.82965 -111.83 0.00 -111.83 -17.23970 -17.23970 0.00000
2514.86 -52.09527 -52.09527 -60.50419 -60.50 0.00 -60.50 -31.92720 -31.92720 0.00000
2539.62 -49.30446 -49.30446 1.68077 1.68 0.00 1.68 -49.86472 -49.86472 0.00000
2564.84 -45.65926 -45.65926 -25.25863 -25.26 0.00 -25.26 -37.23971 -37.23971 0.00000
2589.61 -41.66379 -41.66379 58.91533 58.92 0.00 58.92 -61.30223 -61.30223 0.00000
2614.87 -37.41068 -37.41068 22.17459 22.17 0.00 22.17 -44.80220 -44.80220 0.00000
2639.65 -33.11140 -33.11140 137.82239 137.82 0.00 137.82 -79.05220 -79.05220 0.00000
2664.86 -29.42992 -29.42992 39.36686 39.37 0.00 39.37 -42.55221 -42.55221 0.00000
2689.63 -25.34907 -25.34907 -11.01557 -11.02 0.00 -11.02 -21.67721 -21.67721 0.00000
2714.84 -21.90279 -21.90279 135.82327 135.82 0.00 135.82 -67.17721 -67.17721 0.00000
2739.63 -19.26421 -19.26421 67.42652 67.43 0.00 67.43 -41.73972 -41.73972 0.00000
2764.86 -16.67076 -16.67076 28.89435 28.89 0.00 28.89 -26.30222 -26.30222 0.00000
2789.66 -14.48720 -14.48720 20.25754 20.26 0.00 20.26 -21.23971 -21.23971 0.00000
2814.86 -12.21969 -12.21969 -7.43993 -7.44 0.00 -7.44 -9.73971 -9.73971 0.00000
2839.64 -12.27612 -12.27612 7.39078 7.39 0.00 7.39 -14.73971 -14.73971 0.00000
2864.85 -10.99434 -10.99434 -22.32637 -22.33 0.00 -22.33 -3.55221 -3.55221 0.00000
2889.61 -10.16999 -10.16999 -25.29082 -25.29 0.00 -25.29 -1.73971 -1.73971 0.00000
2914.82 -9.78142 -9.78142 3.24987 3.25 0.00 3.25 -10.86471 -10.86471 0.00000
2939.61 -9.71327 -9.71327 -43.04569 -43.05 0.00 -43.05 4.63529 4.63529 0.00000
2964.84 -9.51139 -9.51139 -7.94006 -7.94 0.00 -7.94 -6.86471 -6.86471 0.00000
2989.62 -9.42970 -9.42970 -15.19496 -15.19 0.00 -15.19 -4.36472 -4.36472 0.00000
3014.86 -8.32580 -8.32580 -4.57076 -4.57 0.00 -4.57 -6.80221 -6.80221 0.00000
3039.66 -7.88453 -7.88453 20.00306 20.00 0.00 20.00 -14.55221 -14.55221 0.00000
3064.85 -7.99515 -7.99515 -19.32881 -19.33 0.00 -19.33 -1.55221 -1.55221 0.00000
3089.63 -7.02522 -7.02522 23.51846 23.52 0.00 23.52 -14.86471 -14.86471 0.00000
3114.87 -6.38147 -6.38147 7.82474 7.82 0.00 7.82 -8.98972 -8.98972 0.00000
3139.65 -5.50965 -5.50965 10.06517 10.07 0.00 10.07 -8.86471 -8.86471 0.00000
3164.87 -4.74603 -4.74603 32.79357 32.79 0.00 32.79 -15.67722 -15.67722 0.00000
3189.62 -4.13278 -4.13278 -36.05422 -36.05 0.00 -36.05 7.88529 7.88529 0.00000
3214.82 -4.11962 -4.11962 59.23532 59.24 0.00 59.24 -23.86473 -23.86473 0.00000
3239.61 -2.29815 -2.29815 -33.55032 -33.55 0.00 -33.55 8.88529 8.88529 0.00000
3264.85 -2.46775 -2.46775 68.31593 68.32 0.00 68.32 -25.23972 -25.23972 0.00000
3289.75 -2.47562 -2.47562 -2.77018 -2.77 0.00 -2.77 -1.55223 -1.55223 0.00000
3314.91 -2.14182 -2.14182 -38.89381 -38.89 0.00 -38.89 10.82279 10.82279 0.00000
3339.64 -1.04255 -1.04255 -0.15856 -0.16 0.00 -0.16 -0.98970 -0.98970 0.00000
3364.82 -1.67622 -1.67622 71.81550 71.82 0.00 71.82 -25.61472 -25.61472 0.00000
3389.63 -1.91274 -1.91274 -34.45650 -34.46 0.00 -34.46 9.57276 9.57276 0.00000
3414.84 -1.65731 -1.65731 -42.87779 -42.88 0.00 -42.88 12.63528 12.63528 0.00000
3439.60 -1.54591 -1.54591 78.76886 78.77 0.00 78.77 -27.80219 -27.80219 0.00000
3464.84 -1.69847 -1.69847 1.06128 1.06 0.00 1.06 -2.05223 -2.05223 0.00000
3489.65 -1.53441 -1.53441 -79.07159 -79.07 0.00 -79.07 24.82278 24.82278 0.00000
3514.85 -1.91024 -1.91024 41.86337 41.86 0.00 41.86 -15.86469 -15.86469 0.00000
3539.64 -1.37624 -1.37624 36.15300 36.15 0.00 36.15 -13.42724 -13.42724 0.00000
3564.83 -1.32479 -1.32479 -77.69273 -77.69 0.00 -77.69 24.57279 24.57279 0.00000
3589.60 -0.88819 -0.88819 18.86702 18.87 0.00 18.87 -7.17720 -7.17720 0.00000
3614.86 -0.86336 -0.86336 48.37910 48.38 0.00 48.38 -16.98973 -16.98973 0.00000
3639.65 -0.84591 -0.84591 -63.31862 -63.32 0.00 -63.32 20.26030 20.26030 0.00000
3664.83 -0.31626 -0.31626 -5.10467 -5.10 0.00 -5.10 1.38530 1.38530 0.00000
3689.64 -0.92598 -0.92598 50.06623 50.07 0.00 50.07 -17.61472 -17.61472 0.00000
3714.81 -0.27047 -0.27047 -52.40480 -52.40 0.00 -52.40 17.19780 17.19780 0.00000
3739.63 0.18524 0.18524 23.58732 23.59 0.00 23.59 -7.67720 -7.67720 0.00000
3764.86 0.22574 0.22574 31.77140 31.77 0.00 31.77 -10.36473 -10.36473 0.00000
3789.61 0.29047 0.29047 -57.28446 -57.28 0.00 -57.28 19.38529 19.38529 0.00000
3814.82 -0.15210 -0.15210 57.82529 57.83 0.00 57.83 -19.42720 -19.42720 0.00000
3839.60 0.26258 0.26258 -9.74305 -9.74 0.00 -9.74 3.51027 3.51027 0.00000
3864.82 0.56559 0.56559 -41.08410 -41.08 0.00 -41.08 14.26029 14.26029 0.00000
3889.64 0.60943 0.60943 69.48490 69.48 0.00 69.48 -22.55221 -22.55221 0.00000
3914.86 0.42231 0.42231 -31.20144 -31.20 0.00 -31.20 10.82280 10.82280 0.00000
3939.64 0.64160 0.64160 3.76890 3.77 0.00 3.77 -0.61470 -0.61470 0.00000
3964.83 0.54366 0.54366 31.60018 31.60 0.00 31.60 -9.98973 -9.98973 0.00000
3989.62 1.12028 1.12028 -62.48256 -62.48 0.00 -62.48 21.94780 21.94780 0.00000
4014.84 0.76916 0.76916 55.15158 55.15 0.00 55.15 -17.61470 -17.61470 0.00000
4039.60 -0.22872 -0.22872 -52.65452 -52.65 0.00 -52.65 17.32278 17.32278 0.00000
4064.84 -0.23805 -0.23805 24.37994 24.38 0.00 24.38 -8.36470 -8.36470 0.00000
4089.63 -0.07410 -0.07410 9.68436 9.68 0.00 9.68 -3.30222 -3.30222 0.00000
4114.85 -26.49344 -26.49344 -115.88620 -115.89 0.00 -115.89 12.13529 12.13529 0.00000
4139.65 -57.88947 -57.88947 -115.76173 -115.76 0.00 -115.76 -19.30223 -19.30223 0.00000
4164.62 -57.30230 -57.30230 -138.37524 -138.38 0.00 -138.38 -11.17721 -11.17721 0.00000
4189.66 -55.91037 -55.91037 -100.44948 -100.45 0.00 -100.45 -22.42722 -22.42722 0.00000
4214.84 -54.15270 -54.15270 -80.17646 -80.18 0.00 -80.18 -27.42722 -27.42722 0.00000
4239.62 -51.54958 -51.54958 -38.42963 -38.43 0.00 -38.43 -38.73970 -38.73970 0.00000
4264.86 -48.06116 -48.06116 15.91068 15.91 0.00 15.91 -53.36472 -53.36472 0.00000
4289.64 -44.44219 -44.44219 12.33004 12.33 0.00 12.33 -48.55220 -48.55220 0.00000
4314.84 -39.75479 -39.75479 97.07975 97.08 0.00 97.08 -72.11471 -72.11471 0.00000
4339.62 -35.46902 -35.46902 27.06208 27.06 0.00 27.06 -44.48972 -44.48972 0.00000
4364.86 -30.95458 -30.95458 26.35537 26.36 0.00 26.36 -39.73970 -39.73970 0.00000
4389.61 -26.90460 -26.90460 136.38037 136.38 0.00 136.38 -72.36472 -72.36472 0.00000
4414.86 -23.28995 -23.28995 92.66179 92.66 0.00 92.66 -54.17721 -54.17721 0.00000
4439.66 -19.93200 -19.93200 9.92311 9.92 0.00 9.92 -23.23971 -23.23971 0.00000
4464.86 -17.17410 -17.17410 68.44681 68.45 0.00 68.45 -39.98970 -39.98970 0.00000
4489.63 -15.05814 -15.05814 43.29471 43.29 0.00 43.29 -29.48971 -29.48971 0.00000
4514.83 -13.38432 -13.38432 20.56619 20.57 0.00 20.57 -20.23972 -20.23972 0.00000
4539.63 -12.19244 -12.19244 37.45431 37.45 0.00 37.45 -24.67721 -24.67721 0.00000
4564.97 -11.75408 -11.75408 -31.35561 -31.36 0.00 -31.36 -1.30221 -1.30221 0.00000
4589.65 -11.15370 -11.15370 -34.42945 -34.43 0.00 -34.43 0.32279 0.32279 0.00000
4614.87 -10.72019 -10.72019 -10.62895 -10.63 0.00 -10.63 -7.17721 -7.17721 0.00000
4639.61 -10.79431 -10.79431 -29.41380 -29.41 0.00 -29.41 -0.98971 -0.98971 0.00000
4664.87 -10.48519 -10.48519 -35.23644 -35.24 0.00 -35.24 1.26029 1.26029 0.00000
4689.66 -10.13817 -10.13817 -13.00788 -13.01 0.00 -13.01 -5.80221 -5.80221 0.00000
4714.87 -9.82873 -9.82873 -4.01705 -4.02 0.00 -4.02 -8.48971 -8.48971 0.00000
4739.61 -9.45709 -9.45709 -6.27714 -6.28 0.00 -6.28 -7.36471 -7.36471 0.00000
4764.86 -8.63148 -8.63148 8.57469 8.57 0.00 8.57 -11.48971 -11.48971 0.00000
4789.64 -7.57771 -7.57771 4.42350 4.42 0.00 4.42 -9.05221 -9.05221 0.00000
4814.86 -6.82836 -6.82836 2.54656 2.55 0.00 2.55 -7.67721 -7.67721 0.00000
4839.62 -5.98931 -5.98931 12.93872 12.94 0.00 12.94 -10.30221 -10.30221 0.00000
4864.87 -5.30204 -5.30204 19.87551 19.88 0.00 19.88 -11.92721 -11.92721 0.00000
4889.64 -4.60179 -4.60179 9.22627 9.23 0.00 9.23 -7.67721 -7.67721 0.00000
4914.86 -4.33426 -4.33426 -8.90866 -8.91 0.00 -8.91 -1.36471 -1.36471 0.00000
4939.62 -3.83235 -3.83235 1.97207 1.97 0.00 1.97 -4.48971 -4.48971 0.00000
4964.86 -3.61492 -3.61492 8.99940 9.00 0.00 9.00 -6.61472 -6.61472 0.00000
4989.62 -3.52629 -3.52629 -4.42221 -4.42 0.00 -4.42 -2.05221 -2.05221 0.00000
5014.87 -3.62141 -3.62141 -4.14509 -4.15 0.00 -4.15 -2.23971 -2.23971 0.00000
5039.62 -3.58015 -3.58015 -4.77132 -4.77 0.00 -4.77 -1.98971 -1.98971 0.00000
5064.88 -3.51213 -3.51213 -22.75477 -22.75 0.00 -22.75 4.07279 4.07279 0.00000
5089.67 -3.25694 -3.25694 3.13580 3.14 0.00 3.14 -4.30221 -4.30221 0.00000
5114.83 -3.38914 -3.38914 10.80170 10.80 0.00 10.80 -6.98971 -6.98971 0.00000
5139.66 -3.32133 -3.32133 -30.43234 -30.43 0.00 -30.43 6.82279 6.82279 0.00000
5164.83 -2.84643 -2.84643 2.86734 2.87 0.00 2.87 -3.80221 -3.80221 0.00000
5189.63 106.69797 106.69797 330.75055 330.75 0.00 330.75 -3.55222 -3.55222 0.00000
5214.84 32.49997 32.49997 68.40659 68.41 0.00 68.41 9.69777 9.69777 0.00000
5239.62 29.96328 29.96328 72.23392 72.23 0.00 72.23 5.88530 5.88530 0.00000
5264.85 54.11269 54.11269 111.30723 111.31 0.00 111.31 17.01028 17.01028 0.00000
5289.64 43.48786 43.48786 41.18272 41.18 0.00 41.18 29.76029 29.76029 0.00000
5314.89 53.94111 53.94111 33.35498 33.35 0.00 33.35 42.82278 42.82278 0.00000
5339.65 46.28960 46.28960 26.52547 26.53 0.00 26.53 37.44778 37.44778 0.00000
5364.83 43.56088 43.56088 -47.66071 -47.66 0.00 -47.66 59.44778 59.44778 0.00000
5389.65 39.72160 39.72160 -47.74102 -47.74 0.00 -47.74 55.63528 55.63528 0.00000
5414.61 36.18762 36.18762 -67.34296 -67.34 0.00 -67.34 58.63528 58.63528 0.00000
5439.62 32.30971 32.30971 -15.22672 -15.23 0.00 -15.23 37.38528 37.38528 0.00000
5464.62 28.77082 28.77082 -57.90594 -57.91 0.00 -57.91 48.07280 48.07280 0.00000
5489.65 25.54608 25.54608 -95.33014 -95.33 0.00 -95.33 57.32279 57.32279 0.00000
5514.61 22.70707 22.70707 2.09035 2.09 0.00 2.09 22.01028 22.01028 0.00000
5539.65 20.02635 20.02635 -75.13935 -75.14 0.00 -75.14 45.07280 45.07280 0.00000
5564.63 18.20530 18.20530 -18.35239 -18.35 0.00 -18.35 24.32277 24.32277 0.00000
5589.65 16.58689 16.58689 7.54230 7.54 0.00 7.54 14.07278 14.07278 0.00000
5614.61 15.17044 15.17044 25.41795 25.42 0.00 25.42 6.69779 6.69779 0.00000
5639.66 14.08314 14.08314 -3.90645 -3.91 0.00 -3.91 15.38529 15.38529 0.00000
5664.64 13.51312 13.51312 27.00851 27.01 0.00 27.01 4.51029 4.51029 0.00000
5689.62 13.13499 13.13499 12.93662 12.94 0.00 12.94 8.82279 8.82279 0.00000
5714.65 12.90100 12.90100 30.23464 30.23 0.00 30.23 2.82279 2.82279 0.00000
5739.65 12.58847 12.58847 26.67205 26.67 0.00 26.67 3.69779 3.69779 0.00000
5764.78 12.25867 12.25867 17.62013 17.62 0.00 17.62 6.38529 6.38529 0.00000
5789.72 11.86930 11.86930 27.51453 27.51 0.00 27.51 2.69779 2.69779 0.00000
5814.65 11.31332 11.31332 10.28411 10.28 0.00 10.28 7.88528 7.88528 0.00000
5839.42 10.72345 10.72345 -28.04802 -28.05 0.00 -28.05 20.07279 20.07279 0.00000
5864.63 10.20119 10.20119 27.57267 27.57 0.00 27.57 1.01030 1.01030 0.00000
5889.62 8.65456 8.65456 30.24534 30.25 0.00 30.25 -1.42722 -1.42722 0.00000
5914.62 8.56497 8.56497 -19.89846 -19.90 0.00 -19.90 15.19779 15.19779 0.00000
5939.62 7.98634 7.98634 -33.63438 -33.63 0.00 -33.63 19.19780 19.19780 0.00000
5964.65 8.14649 8.14649 59.09613 59.10 0.00 59.10 -11.55222 -11.55222 0.00000
5989.66 6.51842 6.51842 -11.78806 -11.79 0.00 -11.79 10.44777 10.44777 0.00000
6014.65 6.28502 6.28502 -48.11331 -48.11 0.00 -48.11 22.32279 22.32279 0.00000
6039.62 5.82879 5.82879 76.70544 76.71 0.00 76.71 -19.73969 -19.73969 0.00000
6064.62 5.21426 5.21426 -16.26304 -16.26 0.00 -16.26 10.63527 10.63527 0.00000
6089.63 4.30347 4.30347 -56.30795 -56.31 0.00 -56.31 23.07278 23.07278 0.00000
6114.66 4.89783 4.89783 70.35007 70.35 0.00 70.35 -18.55220 -18.55220 0.00000
6139.64 4.49245 4.49245 -13.74099 -13.74 0.00 -13.74 9.07278 9.07278 0.00000
6164.65 4.52156 4.52156 -19.46619 -19.47 0.00 -19.47 11.01029 11.01029 0.00000
6189.66 4.27823 4.27823 71.49132 71.49 0.00 71.49 -19.55221 -19.55221 0.00000
6214.65 3.95622 3.95622 -47.97467 -47.97 0.00 -47.97 19.94778 19.94778 0.00000
6239.61 4.17477 4.17477 29.18092 29.18 0.00 29.18 -5.55221 -5.55221 0.00000
6264.63 4.12731 4.12731 53.41362 53.41 0.00 53.41 -13.67723 -13.67723 0.00000
6289.65 3.91645 3.91645 -66.28154 -66.28 0.00 -66.28 26.01030 26.01030 0.00000
6314.63 3.38191 3.38191 47.05231 47.05 0.00 47.05 -12.30220 -12.30220 0.00000
6339.63 3.68647 3.68647 -11.65891 -11.66 0.00 -11.66 7.57277 7.57277 0.00000
6364.61 3.79260 3.79260 2.90943 2.91 0.00 2.91 2.82279 2.82279 0.00000
6389.61 4.19278 4.19278 60.54748 60.55 0.00 60.55 -15.98971 -15.98971 0.00000
6414.65 8.65962 8.65962 -42.11451 -42.11 0.00 -42.11 22.69779 22.69779 0.00000
6439.61 28.76093 28.76093 79.12694 79.13 0.00 79.13 2.38529 2.38529 0.00000
6464.66 63.79848 63.79848 192.67706 192.68 0.00 192.68 -0.42721 -0.42721 0.00000
6489.63 63.01447 63.01447 140.63757 140.64 0.00 140.64 16.13528 16.13528 0.00000
6514.65 61.65691 61.65691 103.56487 103.56 0.00 103.56 27.13529 27.13529 0.00000
6539.63 59.54566 59.54566 123.66863 123.67 0.00 123.67 18.32278 18.32278 0.00000
6564.62 56.47710 56.47710 37.02548 37.03 0.00 37.03 44.13528 44.13528 0.00000
6589.66 52.64748 52.64748 -11.77589 -11.78 0.00 -11.78 56.57278 56.57278 0.00000
6614.65 48.65598 48.65598 -44.00042 -44.00 0.00 -44.00 63.32278 63.32278 0.00000
6639.63 43.99909 43.99909 -67.34613 -67.35 0.00 -67.35 66.44780 66.44780 0.00000
6664.61 39.47907 39.47907 -56.90609 -56.91 0.00 -56.91 58.44777 58.44777 0.00000
6689.63 34.56022 34.56022 -53.10020 -53.10 0.00 -53.10 52.26028 52.26028 0.00000
