% Controller vroll
% Log with 1500 values (sample interval=0.03ms)
% Uses separate derivative input (gyro) 0
% data format:
% 1   Time (ms)
% 2   Control reference input (setpoint) (r)
% 3   after pre-filter (r2)
% 4   error after Kp (ep)
% 5   error after Kp and lead/lag, before I (up)
% 6   integrator output (ui)
% 7   Controller output (u) after limiter
% 8   measurement (m)
% 9   measurement after filter (m2)
% 10  Feed forward output (uf)
% 
4.51 0.36954 0.36954 -6.42226 -6.42 0.00 -6.42 2.51029 2.51029 0.00000
12.02 0.35129 0.35129 5.14801 5.15 0.00 5.15 -1.36471 -1.36471 0.00000
19.76 0.59728 0.59728 13.57348 13.57 0.00 13.57 -3.92722 -3.92722 0.00000
27.18 0.68094 0.68094 3.32446 3.32 0.00 3.32 -0.42721 -0.42721 0.00000
34.51 0.88704 0.88704 0.38025 0.38 0.00 0.38 0.76029 0.76029 0.00000
42.15 0.78704 0.78704 -12.48224 -12.48 0.00 -12.48 4.94779 4.94779 0.00000
49.73 0.68915 0.68915 4.66156 4.66 0.00 4.66 -0.86471 -0.86471 0.00000
57.13 0.60059 0.60059 -0.47913 -0.48 0.00 -0.48 0.76029 0.76029 0.00000
64.63 0.55547 0.55547 12.51056 12.51 0.00 12.51 -3.61472 -3.61472 0.00000
72.11 0.85695 0.85695 16.60250 16.60 0.00 16.60 -4.67722 -4.67722 0.00000
79.82 1.04953 1.04953 -7.94476 -7.94 0.00 -7.94 3.69779 3.69779 0.00000
87.08 0.93092 0.93092 7.07442 7.07 0.00 7.07 -1.42721 -1.42721 0.00000
94.59 0.61828 0.61828 8.94898 8.95 0.00 8.95 -2.36471 -2.36471 0.00000
101.86 0.46654 0.46654 4.18124 4.18 0.00 4.18 -0.92721 -0.92721 0.00000
109.74 1.53078 1.53078 9.06147 9.06 0.00 9.06 -1.48971 -1.48971 0.00000
117.01 1.68937 1.68937 10.84976 10.85 0.00 10.85 -1.92722 -1.92722 0.00000
124.53 1.00946 1.00946 3.18502 3.19 0.00 3.19 -0.05221 -0.05221 0.00000
132.05 1.00058 1.00058 2.40839 2.41 0.00 2.41 0.19779 0.19779 0.00000
139.74 0.99116 0.99116 -17.49488 -17.49 0.00 -17.49 6.82278 6.82278 0.00000
147.03 0.88142 0.88142 2.23838 2.24 0.00 2.24 0.13529 0.13529 0.00000
154.53 0.73453 0.73453 11.92272 11.92 0.00 11.92 -3.23970 -3.23970 0.00000
162.04 0.59992 0.59992 9.08139 9.08 0.00 9.08 -2.42722 -2.42722 0.00000
169.76 0.76032 0.76032 16.68761 16.69 0.00 16.69 -4.80222 -4.80222 0.00000
177.02 0.94434 0.94434 -10.13535 -10.14 0.00 -10.14 4.32279 4.32279 0.00000
184.52 1.46980 1.46980 -14.93397 -14.93 0.00 -14.93 6.44779 6.44779 0.00000
192.04 1.43416 1.43416 2.20913 2.21 0.00 2.21 0.69779 0.69779 0.00000
199.75 1.28830 1.28830 -9.85348 -9.85 0.00 -9.85 4.57279 4.57279 0.00000
207.04 1.20544 1.20544 3.96045 3.96 0.00 3.96 -0.11471 -0.11471 0.00000
214.52 0.31696 0.31696 10.85753 10.86 0.00 10.86 -3.30222 -3.30222 0.00000
222.04 0.42853 0.42853 9.12973 9.13 0.00 9.13 -2.61472 -2.61472 0.00000
229.75 0.50093 0.50093 1.84693 1.85 0.00 1.85 -0.11471 -0.11471 0.00000
237.04 0.49285 0.49285 -11.86480 -11.86 0.00 -11.86 4.44779 4.44779 0.00000
244.51 0.39548 0.39548 2.28058 2.28 0.00 2.28 -0.36471 -0.36471 0.00000
252.04 0.57324 0.57324 5.06385 5.06 0.00 5.06 -1.11471 -1.11471 0.00000
259.73 0.42587 0.42587 -0.06574 -0.07 0.00 -0.07 0.44779 0.44779 0.00000
267.04 0.48528 0.48528 13.98749 13.99 0.00 13.99 -4.17722 -4.17722 0.00000
274.51 0.78595 0.78595 -8.36050 -8.36 0.00 -8.36 3.57279 3.57279 0.00000
282.06 0.66760 0.66760 -17.90306 -17.90 0.00 -17.90 6.63529 6.63529 0.00000
289.72 0.50007 0.50007 -3.40566 -3.41 0.00 -3.41 1.63529 1.63529 0.00000
297.02 0.37142 0.37142 -11.85412 -11.85 0.00 -11.85 4.32280 4.32280 0.00000
304.52 0.89681 0.89681 5.28453 5.28 0.00 5.28 -0.86471 -0.86471 0.00000
312.03 0.95782 0.95782 19.90512 19.91 0.00 19.91 -5.67721 -5.67721 0.00000
319.74 0.92854 0.92854 11.00477 11.00 0.00 11.00 -2.73972 -2.73972 0.00000
327.02 0.00365 0.00365 -3.20741 -3.21 0.00 -3.21 1.07279 1.07279 0.00000
334.54 -0.02933 -0.02933 -15.68137 -15.68 0.00 -15.68 5.19779 5.19779 0.00000
342.05 0.14481 0.14481 1.71606 1.72 0.00 1.72 -0.42721 -0.42721 0.00000
349.73 0.08414 0.08414 -2.59094 -2.59 0.00 -2.59 0.94779 0.94779 0.00000
357.03 -0.03961 -0.03961 -5.58720 -5.59 0.00 -5.59 1.82279 1.82279 0.00000
364.51 0.03377 0.03377 11.32046 11.32 0.00 11.32 -3.73971 -3.73971 0.00000
372.05 0.28812 0.28812 11.33350 11.33 0.00 11.33 -3.48972 -3.48972 0.00000
379.72 0.31624 0.31624 -15.20713 -15.21 0.00 -15.21 5.38529 5.38529 0.00000
387.01 0.05985 0.05985 -0.03880 -0.04 0.00 -0.04 0.07278 0.07278 0.00000
394.55 0.08038 0.08038 -3.53974 -3.54 0.00 -3.54 1.26029 1.26029 0.00000
402.01 -0.14209 -0.14209 -1.76967 -1.77 0.00 -1.77 0.44780 0.44780 0.00000
409.75 -0.05385 -0.05385 20.99510 21.00 0.00 21.00 -7.05222 -7.05222 0.00000
417.02 0.81745 0.81745 2.79652 2.80 0.00 2.80 -0.11472 -0.11472 0.00000
424.54 0.79677 0.79677 -8.51554 -8.52 0.00 -8.52 3.63529 3.63529 0.00000
432.01 0.09664 0.09664 -16.61594 -16.62 0.00 -16.62 5.63529 5.63529 0.00000
439.73 0.06029 0.06029 3.15000 3.15 0.00 3.15 -0.98971 -0.98971 0.00000
447.01 -0.01934 -0.01934 -1.96389 -1.96 0.00 -1.96 0.63529 0.63529 0.00000
454.55 -0.47915 -0.47915 -7.09333 -7.09 0.00 -7.09 1.88529 1.88529 0.00000
462.04 -0.45508 -0.45508 9.66640 9.67 0.00 9.67 -3.67721 -3.67721 0.00000
469.75 0.08426 0.08426 15.97193 15.97 0.00 15.97 -5.23972 -5.23972 0.00000
477.05 0.10177 0.10177 -10.78806 -10.79 0.00 -10.79 3.69779 3.69779 0.00000
484.51 -0.17820 -0.17820 -6.75296 -6.75 0.00 -6.75 2.07278 2.07278 0.00000
492.01 -0.23546 -0.23546 -2.04975 -2.05 0.00 -2.05 0.44779 0.44779 0.00000
499.72 -0.31055 -0.31055 -1.52504 -1.53 0.00 -1.53 0.19780 0.19780 0.00000
507.01 -0.33316 -0.33316 12.46968 12.47 0.00 12.47 -4.48972 -4.48972 0.00000
514.51 -0.23312 -0.23312 0.58230 0.58 0.00 0.58 -0.42722 -0.42722 0.00000
522.02 -0.42874 -0.42874 -0.56707 -0.57 0.00 -0.57 -0.23971 -0.23971 0.00000
529.77 -0.31655 -0.31655 -16.16801 -16.17 0.00 -16.17 5.07279 5.07279 0.00000
537.06 -0.50840 -0.50840 -6.80606 -6.81 0.00 -6.81 1.76029 1.76029 0.00000
544.54 -0.14387 -0.14387 -1.58747 -1.59 0.00 -1.59 0.38529 0.38529 0.00000
552.01 -0.21082 -0.21082 -6.10083 -6.10 0.00 -6.10 1.82280 1.82280 0.00000
559.72 -0.17595 -0.17595 18.56629 18.57 0.00 18.57 -6.36471 -6.36471 0.00000
567.01 -0.00961 -0.00961 11.00281 11.00 0.00 11.00 -3.67722 -3.67722 0.00000
574.52 -0.19978 -0.19978 -8.50519 -8.51 0.00 -8.51 2.63529 2.63529 0.00000
582.03 -0.46273 -0.46273 -11.73155 -11.73 0.00 -11.73 3.44779 3.44779 0.00000
589.75 -0.55387 -0.55387 1.30752 1.31 0.00 1.31 -0.98971 -0.98971 0.00000
597.02 -0.62702 -0.62702 -4.72443 -4.72 0.00 -4.72 0.94779 0.94779 0.00000
604.51 -0.63446 -0.63446 -0.80925 -0.81 0.00 -0.81 -0.36471 -0.36471 0.00000
612.02 -0.52566 -0.52566 0.26718 0.27 0.00 0.27 -0.61472 -0.61472 0.00000
619.56 -0.27871 -0.27871 -0.49198 -0.49 0.00 -0.49 -0.11472 -0.11472 0.00000
627.05 -0.27776 -0.27776 -3.48914 -3.49 0.00 -3.49 0.88529 0.88529 0.00000
634.55 0.55687 0.55687 -7.54773 -7.55 0.00 -7.55 3.07278 3.07278 0.00000
642.06 0.55966 0.55966 3.89811 3.90 0.00 3.90 -0.73971 -0.73971 0.00000
649.71 -0.15755 -0.15755 -2.19105 -2.19 0.00 -2.19 0.57280 0.57280 0.00000
657.01 -0.28456 -0.28456 11.49046 11.49 0.00 11.49 -4.11472 -4.11472 0.00000
664.53 -0.41923 -0.41923 5.46145 5.46 0.00 5.46 -2.23972 -2.23972 0.00000
672.02 -0.18031 -0.18031 -6.94680 -6.95 0.00 -6.95 2.13529 2.13529 0.00000
679.76 -0.29886 -0.29886 -15.92744 -15.93 0.00 -15.93 5.01029 5.01029 0.00000
687.04 0.06352 0.06352 5.03470 5.03 0.00 5.03 -1.61471 -1.61471 0.00000
694.54 -0.03480 -0.03480 0.23973 0.24 0.00 0.24 -0.11471 -0.11471 0.00000
702.02 -0.15243 -0.15243 -4.98817 -4.99 0.00 -4.99 1.51029 1.51029 0.00000
709.73 0.00344 0.00344 9.54197 9.54 0.00 9.54 -3.17721 -3.17721 0.00000
717.04 0.13071 0.13071 11.23628 11.24 0.00 11.24 -3.61472 -3.61472 0.00000
724.53 0.05969 0.05969 4.64821 4.65 0.00 4.65 -1.48971 -1.48971 0.00000
732.05 0.02870 0.02870 -10.81977 -10.82 0.00 -10.82 3.63528 3.63528 0.00000
739.74 -0.10107 -0.10107 0.79090 0.79 0.00 0.79 -0.36471 -0.36471 0.00000
747.02 -0.16710 -0.16710 8.28032 8.28 0.00 8.28 -2.92721 -2.92721 0.00000
754.52 -0.58392 -0.58392 -4.22012 -4.22 0.00 -4.22 0.82279 0.82279 0.00000
762.02 -0.33127 -0.33127 5.72533 5.73 0.00 5.73 -2.23972 -2.23972 0.00000
769.73 -0.09083 -0.09083 -4.42835 -4.43 0.00 -4.43 1.38529 1.38529 0.00000
777.06 0.83454 0.83454 -6.52723 -6.53 0.00 -6.53 3.01029 3.01029 0.00000
784.55 0.79369 0.79369 0.66272 0.66 0.00 0.66 0.57279 0.57279 0.00000
792.01 -0.10372 -0.10372 -5.77952 -5.78 0.00 -5.78 1.82279 1.82279 0.00000
799.77 -0.13751 -0.13751 4.05660 4.06 0.00 4.06 -1.48971 -1.48971 0.00000
807.04 -0.07293 -0.07293 5.00035 5.00 0.00 5.00 -1.73971 -1.73971 0.00000
814.52 -0.07669 -0.07669 3.86406 3.86 0.00 3.86 -1.36471 -1.36471 0.00000
822.05 0.04585 0.04585 1.60668 1.61 0.00 1.61 -0.48971 -0.48971 0.00000
829.75 0.14163 0.14163 -1.66848 -1.67 0.00 -1.67 0.69779 0.69779 0.00000
837.02 0.06287 0.06287 -4.15475 -4.15 0.00 -4.15 1.44779 1.44779 0.00000
844.53 -0.00579 -0.00579 3.32675 3.33 0.00 3.33 -1.11471 -1.11471 0.00000
852.04 -0.04973 -0.04973 -2.80507 -2.81 0.00 -2.81 0.88529 0.88529 0.00000
859.77 -0.04362 -0.04362 1.52577 1.53 0.00 1.53 -0.55221 -0.55221 0.00000
867.04 0.13474 0.13474 0.74835 0.75 0.00 0.75 -0.11471 -0.11471 0.00000
874.55 0.27199 0.27199 -4.46489 -4.46 0.00 -4.46 1.76029 1.76029 0.00000
882.01 0.04203 0.04203 -1.02978 -1.03 0.00 -1.03 0.38529 0.38529 0.00000
889.75 0.01494 0.01494 -0.73607 -0.74 0.00 -0.74 0.26029 0.26029 0.00000
897.03 -0.05827 -0.05827 6.73183 6.73 0.00 6.73 -2.30221 -2.30221 0.00000
904.51 -0.03020 -0.03020 1.75355 1.75 0.00 1.75 -0.61471 -0.61471 0.00000
912.05 -0.17307 -0.17307 -4.67506 -4.68 0.00 -4.68 1.38529 1.38529 0.00000
919.77 -0.23149 -0.23149 2.27466 2.27 0.00 2.27 -0.98971 -0.98971 0.00000
927.01 -0.23426 -0.23426 -3.73363 -3.73 0.00 -3.73 1.01029 1.01029 0.00000
934.51 -0.32735 -0.32735 -7.95041 -7.95 0.00 -7.95 2.32279 2.32279 0.00000
942.02 -0.44820 -0.44820 -5.12547 -5.13 0.00 -5.13 1.26029 1.26029 0.00000
949.75 -0.36424 -0.36424 -5.62359 -5.62 0.00 -5.62 1.51029 1.51029 0.00000
957.04 -0.34457 -0.34457 1.37294 1.37 0.00 1.37 -0.80221 -0.80221 0.00000
964.32 -0.47368 -0.47368 -0.70189 -0.70 0.00 -0.70 -0.23971 -0.23971 0.00000
972.05 -0.39982 -0.39982 -4.98033 -4.98 0.00 -4.98 1.26029 1.26029 0.00000
979.72 -0.51962 -0.51962 -7.21473 -7.21 0.00 -7.21 1.88529 1.88529 0.00000
987.03 -0.50952 -0.50952 3.87807 3.88 0.00 3.88 -1.80221 -1.80221 0.00000
994.52 -0.66079 -0.66079 2.29927 2.30 0.00 2.30 -1.42721 -1.42721 0.00000
1002.05 -0.71364 -0.71364 1.39072 1.39 0.00 1.39 -1.17721 -1.17721 0.00000
1009.75 -0.67391 -0.67391 -11.24010 -11.24 0.00 -11.24 3.07279 3.07279 0.00000
1017.02 -0.67816 -0.67816 1.30967 1.31 0.00 1.31 -1.11471 -1.11471 0.00000
1024.52 -0.05639 -0.05639 -0.01251 -0.01 0.00 -0.01 -0.05222 -0.05222 0.00000
1032.00 -0.11562 -0.11562 -5.62772 -5.63 0.00 -5.63 1.76029 1.76029 0.00000
1039.75 -0.09760 -0.09760 0.80133 0.80 0.00 0.80 -0.36471 -0.36471 0.00000
1047.01 -0.03792 -0.03792 11.29286 11.29 0.00 11.29 -3.80221 -3.80221 0.00000
1054.56 -0.18456 -0.18456 -3.39704 -3.40 0.00 -3.40 0.94779 0.94779 0.00000
1062.05 -0.21950 -0.21950 0.43564 0.44 0.00 0.44 -0.36471 -0.36471 0.00000
1069.75 0.01058 0.01058 4.68838 4.69 0.00 4.69 -1.55221 -1.55221 0.00000
1077.01 3.29199 3.29199 0.84510 0.85 0.00 0.85 3.01029 3.01029 0.00000
1084.52 3.22330 3.22330 10.38904 10.39 0.00 10.39 -0.23971 -0.23971 0.00000
1092.04 3.13568 3.13568 1.50117 1.50 0.00 1.50 2.63529 2.63529 0.00000
1099.75 9.32927 9.32927 30.76943 30.77 0.00 30.77 -0.92721 -0.92721 0.00000
1107.03 9.51844 9.51844 30.21195 30.21 0.00 30.21 -0.55221 -0.55221 0.00000
1114.54 14.52925 14.52925 44.30690 44.31 0.00 44.31 -0.23971 -0.23971 0.00000
1122.05 14.47209 14.47209 43.38542 43.39 0.00 43.39 0.01029 0.01029 0.00000
1129.72 14.58004 14.58004 33.20926 33.21 0.00 33.21 3.51029 3.51029 0.00000
1137.03 21.65454 21.65454 59.30775 59.31 0.00 59.31 1.88529 1.88529 0.00000
1144.51 21.56313 21.56313 71.22102 71.22 0.00 71.22 -2.17721 -2.17721 0.00000
1152.02 30.80546 30.80546 83.57301 83.57 0.00 83.57 2.94779 2.94779 0.00000
1159.77 30.81370 30.81370 84.91023 84.91 0.00 84.91 2.51029 2.51029 0.00000
1167.05 30.97731 30.97731 82.58856 82.59 0.00 82.59 3.44779 3.44779 0.00000
1174.52 38.82521 38.82521 103.13226 103.13 0.00 103.13 4.44779 4.44779 0.00000
1182.05 38.57024 38.57024 95.24234 95.24 0.00 95.24 6.82279 6.82279 0.00000
1189.77 43.30983 43.30983 116.21111 116.21 0.00 116.21 4.57279 4.57279 0.00000
1197.02 43.21543 43.21543 116.67792 116.68 0.00 116.68 4.32279 4.32279 0.00000
1204.51 47.91102 47.91102 111.26470 111.26 0.00 111.26 10.82279 10.82279 0.00000
1212.02 47.66847 47.66847 106.03706 106.04 0.00 106.04 12.32279 12.32279 0.00000
1219.72 47.47071 47.47071 97.00627 97.01 0.00 97.01 15.13529 15.13529 0.00000
1227.01 49.93447 49.93447 122.96006 122.96 0.00 122.96 8.94779 8.94779 0.00000
1234.51 49.69897 49.69897 113.25354 113.25 0.00 113.25 11.94779 11.94779 0.00000
1242.02 52.05986 52.05986 107.02371 107.02 0.00 107.02 16.38529 16.38529 0.00000
1249.74 51.68216 51.68216 106.82811 106.83 0.00 106.83 16.07279 16.07279 0.00000
1257.03 51.38320 51.38320 89.24374 89.24 0.00 89.24 21.63529 21.63529 0.00000
1264.52 54.89746 54.89746 103.91153 103.91 0.00 103.91 20.26029 20.26029 0.00000
1272.01 54.46577 54.46577 100.92895 100.93 0.00 100.93 20.82279 20.82279 0.00000
1279.84 56.34748 56.34748 96.26159 96.26 0.00 96.26 24.26028 24.26028 0.00000
1287.17 55.98462 55.98462 93.86049 93.86 0.00 93.86 24.69779 24.69779 0.00000
1294.66 55.41961 55.41961 90.47796 90.48 0.00 90.48 25.26029 25.26029 0.00000
1302.11 54.80009 54.80009 95.93191 95.93 0.00 95.93 22.82278 22.82278 0.00000
1309.85 54.02704 54.02704 75.61274 75.61 0.00 75.61 28.82279 28.82279 0.00000
1316.89 53.19723 53.19723 69.37334 69.37 0.00 69.37 30.07279 30.07279 0.00000
1324.58 52.47706 52.47706 87.65031 87.65 0.00 87.65 23.26029 23.26029 0.00000
1332.04 51.95102 51.95102 36.57219 36.57 0.00 36.57 39.76029 39.76029 0.00000
1339.74 51.14471 51.14471 52.90327 52.90 0.00 52.90 33.51028 33.51028 0.00000
1347.03 50.33451 50.33451 45.97266 45.97 0.00 45.97 35.01029 35.01029 0.00000
1354.53 49.43143 49.43143 45.88842 45.89 0.00 45.89 34.13529 34.13529 0.00000
1362.04 48.74207 48.74207 28.07038 28.07 0.00 28.07 39.38528 39.38528 0.00000
1369.77 47.93645 47.93645 -0.22149 -0.22 0.00 -0.22 48.01028 48.01028 0.00000
1377.03 46.92416 46.92416 18.11662 18.12 0.00 18.12 40.88529 40.88529 0.00000
1384.56 46.08713 46.08713 8.66802 8.67 0.00 8.67 43.19779 43.19779 0.00000
1392.03 44.99134 44.99134 7.81817 7.82 0.00 7.82 42.38528 42.38528 0.00000
1399.73 44.05317 44.05317 0.31615 0.32 0.00 0.32 43.94778 43.94778 0.00000
1407.03 42.94534 42.94534 -42.38235 -42.38 0.00 -42.38 57.07279 57.07279 0.00000
1414.56 41.82375 41.82375 -5.05962 -5.06 0.00 -5.06 43.51029 43.51029 0.00000
1422.03 40.62503 40.62503 -19.15577 -19.16 0.00 -19.16 47.01029 47.01029 0.00000
1429.73 39.33654 39.33654 -37.83376 -37.83 0.00 -37.83 51.94779 51.94779 0.00000
1437.04 38.36161 38.36161 -20.50851 -20.51 0.00 -20.51 45.19778 45.19778 0.00000
1444.55 37.36667 37.36667 -57.61836 -57.62 0.00 -57.62 56.57279 56.57279 0.00000
1452.03 36.12893 36.12893 -50.64407 -50.64 0.00 -50.64 53.01029 53.01029 0.00000
1459.75 34.90246 34.90246 -35.19847 -35.20 0.00 -35.20 46.63528 46.63528 0.00000
1467.03 33.76047 33.76047 -74.24947 -74.25 0.00 -74.25 58.51029 58.51029 0.00000
1474.51 32.44971 32.44971 -55.30673 -55.31 0.00 -55.31 50.88529 50.88529 0.00000
1481.82 31.44804 31.44804 -68.24924 -68.25 0.00 -68.25 54.19778 54.19778 0.00000
1489.57 30.11279 30.11279 -70.00499 -70.00 0.00 -70.00 53.44779 53.44779 0.00000
1497.02 28.83912 28.83912 -65.38851 -65.39 0.00 -65.39 50.63529 50.63529 0.00000
1504.55 27.67381 27.67381 -86.32194 -86.32 0.00 -86.32 56.44779 56.44779 0.00000
1512.03 26.35036 26.35036 -88.22977 -88.23 0.00 -88.23 55.76028 55.76028 0.00000
1519.73 25.20084 25.20084 -66.74082 -66.74 0.00 -66.74 47.44778 47.44778 0.00000
1527.05 23.99971 23.99971 -84.21927 -84.22 0.00 -84.22 52.07280 52.07280 0.00000
1534.52 22.79835 22.79835 -80.69829 -80.70 0.00 -80.70 49.69778 49.69778 0.00000
1542.04 21.65843 21.65843 -93.86804 -93.87 0.00 -93.87 52.94778 52.94778 0.00000
1549.77 15.20551 15.20551 -128.60185 -128.60 0.00 -128.60 58.07280 58.07280 0.00000
1557.01 14.20187 14.20187 -52.11278 -52.11 0.00 -52.11 31.57279 31.57279 0.00000
1564.51 -1.20276 -1.20276 -135.82660 -135.83 0.00 -135.83 44.07278 44.07278 0.00000
1572.01 -2.47580 -2.47580 -174.14577 -174.15 0.00 -174.15 55.57279 55.57279 0.00000
1579.77 -3.24619 -3.24619 -109.14442 -109.14 0.00 -109.14 33.13529 33.13529 0.00000
1587.06 -26.58102 -26.58102 -189.27390 -189.27 0.00 -189.27 36.51028 36.51028 0.00000
1594.52 -27.95952 -27.95952 -214.40941 -214.41 0.00 -214.41 43.51028 43.51028 0.00000
1602.01 -46.80296 -46.80296 -217.87724 -217.88 0.00 -217.88 25.82278 25.82278 0.00000
1609.75 -47.65342 -47.65342 -263.17865 -263.18 0.00 -263.18 40.07280 40.07280 0.00000
1617.03 -48.41539 -48.41539 -202.08952 -202.09 0.00 -202.09 18.94778 18.94778 0.00000
1624.53 -49.74281 -49.74281 -240.57178 -240.57 0.00 -240.57 30.44778 30.44778 0.00000
1632.04 -50.42229 -50.42229 -244.86026 -244.86 0.00 -244.86 31.19780 31.19780 0.00000
1639.75 -50.64294 -50.64294 -186.45973 -186.46 0.00 -186.46 11.51030 11.51030 0.00000
1647.02 -51.10819 -51.10819 -170.04295 -170.04 0.00 -170.04 5.57279 5.57279 0.00000
1654.55 -51.42512 -51.42512 -180.36865 -180.37 0.00 -180.37 8.69777 8.69777 0.00000
1662.06 -51.63661 -51.63661 -235.94069 -235.94 0.00 -235.94 27.01029 27.01029 0.00000
1669.74 -51.68249 -51.68249 -151.51582 -151.52 0.00 -151.52 -1.17721 -1.17721 0.00000
1677.05 -51.85558 -51.85558 -136.47263 -136.47 0.00 -136.47 -6.36471 -6.36471 0.00000
1684.51 -51.96055 -51.96055 -159.28752 -159.29 0.00 -159.29 1.13529 1.13529 0.00000
1692.05 -50.77918 -50.77918 -134.55589 -134.56 0.00 -134.56 -5.92722 -5.92722 0.00000
1699.72 -50.41993 -50.41993 -96.54066 -96.54 0.00 -96.54 -18.23971 -18.23971 0.00000
1707.05 -50.06672 -50.06672 -99.60603 -99.61 0.00 -99.61 -16.86471 -16.86471 0.00000
1714.55 -50.62154 -50.62154 -81.95798 -81.96 0.00 -81.96 -23.30221 -23.30221 0.00000
1722.04 -50.27346 -50.27346 -92.53874 -92.54 0.00 -92.54 -19.42721 -19.42721 0.00000
1729.74 -49.67317 -49.67317 -47.05038 -47.05 0.00 -47.05 -33.98971 -33.98971 0.00000
1737.05 -49.06111 -49.06111 -58.33918 -58.34 0.00 -58.34 -29.61472 -29.61472 0.00000
1744.52 -48.39204 -48.39204 -37.58195 -37.58 0.00 -37.58 -35.86472 -35.86472 0.00000
1752.05 -47.50564 -47.50564 -65.48531 -65.49 0.00 -65.49 -25.67721 -25.67721 0.00000
1759.74 -46.73882 -46.73882 -10.68484 -10.68 0.00 -10.68 -43.17721 -43.17721 0.00000
1767.05 -45.69606 -45.69606 -35.11901 -35.12 0.00 -35.12 -33.98972 -33.98972 0.00000
1774.53 -44.71018 -44.71018 -20.34893 -20.35 0.00 -20.35 -37.92720 -37.92720 0.00000
1782.02 -43.62690 -43.62690 10.65090 10.65 0.00 10.65 -47.17720 -47.17720 0.00000
1789.72 -42.56631 -42.56631 22.64517 22.65 0.00 22.65 -50.11470 -50.11470 0.00000
1797.05 -41.23249 -41.23249 72.20917 72.21 0.00 72.21 -65.30221 -65.30221 0.00000
1804.57 -40.14590 -40.14590 46.96897 46.97 0.00 46.97 -55.80222 -55.80222 0.00000
1812.06 -38.96486 -38.96486 72.44954 72.45 0.00 72.45 -63.11470 -63.11470 0.00000
1819.77 -37.46954 -37.46954 71.31054 71.31 0.00 71.31 -61.23972 -61.23972 0.00000
1826.81 -36.36874 -36.36874 30.17539 30.18 0.00 30.18 -46.42720 -46.42720 0.00000
1834.54 -34.87514 -34.87514 70.09370 70.09 0.00 70.09 -58.23971 -58.23971 0.00000
1842.05 -33.38712 -33.38712 125.18275 125.18 0.00 125.18 -75.11471 -75.11471 0.00000
1849.74 -31.96980 -31.96980 122.49725 122.50 0.00 122.50 -72.80222 -72.80222 0.00000
1857.05 -30.60209 -30.60209 117.22543 117.23 0.00 117.23 -69.67723 -69.67723 0.00000
1864.52 -29.10711 -29.10711 88.71028 88.71 0.00 88.71 -58.67721 -58.67721 0.00000
1872.05 -26.65046 -26.65046 64.39275 64.39 0.00 64.39 -48.11471 -48.11471 0.00000
1879.73 -24.95022 -24.95022 161.55597 161.56 0.00 161.56 -78.80221 -78.80221 0.00000
1887.05 -23.31299 -23.31299 177.15515 177.16 0.00 177.16 -82.36471 -82.36471 0.00000
1894.55 -22.63353 -22.63353 143.94357 143.94 0.00 143.94 -70.61472 -70.61472 0.00000
1902.04 -20.99429 -20.99429 159.17381 159.17 0.00 159.17 -74.05222 -74.05222 0.00000
1909.76 -19.51904 -19.51904 80.53702 80.54 0.00 80.54 -46.36471 -46.36471 0.00000
1917.01 -17.82209 -17.82209 170.19035 170.19 0.00 170.19 -74.55221 -74.55221 0.00000
1924.53 -15.44549 -15.44549 177.88266 177.88 0.00 177.88 -74.73971 -74.73971 0.00000
1932.06 -14.09710 -14.09710 200.67787 200.68 0.00 200.68 -80.98972 -80.98972 0.00000
1939.73 -12.55757 -12.55757 154.67145 154.67 0.00 154.67 -64.11472 -64.11472 0.00000
1947.05 -11.90948 -11.90948 107.11569 107.12 0.00 107.12 -47.61471 -47.61471 0.00000
1954.51 -10.17362 -10.17362 196.69827 196.70 0.00 196.70 -75.73972 -75.73972 0.00000
1962.04 -8.72787 -8.72787 194.47305 194.47 0.00 194.47 -73.55222 -73.55222 0.00000
1969.75 -7.63228 -7.63228 165.88483 165.88 0.00 165.88 -62.92722 -62.92722 0.00000
1977.02 -6.29763 -6.29763 106.13876 106.14 0.00 106.14 -41.67721 -41.67721 0.00000
1984.56 -4.82717 -4.82717 149.55013 149.55 0.00 149.55 -54.67721 -54.67721 0.00000
1992.04 -3.46285 -3.46285 190.58063 190.58 0.00 190.58 -66.98972 -66.98972 0.00000
1999.74 -2.45397 -2.45397 162.85724 162.86 0.00 162.86 -56.73971 -56.73971 0.00000
2007.02 -1.28776 -1.28776 103.16835 103.17 0.00 103.17 -35.67722 -35.67722 0.00000
2014.52 -0.78638 -0.78638 153.61000 153.61 0.00 153.61 -51.98972 -51.98972 0.00000
2022.05 0.46341 0.46341 151.54684 151.55 0.00 151.55 -50.05220 -50.05220 0.00000
2029.77 1.12087 1.12087 142.83176 142.83 0.00 142.83 -46.48972 -46.48972 0.00000
2037.02 2.43262 2.43262 112.07948 112.08 0.00 112.08 -34.92721 -34.92721 0.00000
2044.52 3.09661 3.09661 84.07146 84.07 0.00 84.07 -24.92721 -24.92721 0.00000
2052.05 4.64673 4.64673 173.65930 173.66 0.00 173.66 -53.23971 -53.23971 0.00000
2059.76 5.23677 5.23677 96.67944 96.68 0.00 96.68 -26.98971 -26.98971 0.00000
2067.01 6.04596 6.04596 100.04454 100.04 0.00 100.04 -27.30222 -27.30222 0.00000
2074.52 6.78785 6.78785 76.02020 76.02 0.00 76.02 -18.55221 -18.55221 0.00000
2082.02 7.44747 7.44747 117.37402 117.37 0.00 117.37 -31.67721 -31.67721 0.00000
2089.72 7.43126 7.43126 83.57544 83.58 0.00 83.58 -20.42722 -20.42722 0.00000
2097.02 7.72299 7.72299 94.20061 94.20 0.00 94.20 -23.67722 -23.67722 0.00000
2104.53 8.92847 8.92847 78.69202 78.69 0.00 78.69 -17.30221 -17.30221 0.00000
2112.02 9.23861 9.23861 72.12247 72.12 0.00 72.12 -14.80221 -14.80221 0.00000
2119.76 9.65458 9.65458 66.99539 67.00 0.00 67.00 -12.67721 -12.67721 0.00000
2127.05 9.73257 9.73257 57.29184 57.29 0.00 57.29 -9.36471 -9.36471 0.00000
2134.55 10.05184 10.05184 49.62466 49.62 0.00 49.62 -6.48971 -6.48971 0.00000
2142.02 10.26405 10.26405 45.76128 45.76 0.00 45.76 -4.98971 -4.98971 0.00000
2149.73 10.34774 10.34774 46.38736 46.39 0.00 46.39 -5.11471 -5.11471 0.00000
2157.03 10.42310 10.42310 23.36343 23.36 0.00 23.36 2.63528 2.63528 0.00000
2164.54 10.38891 10.38891 30.76085 30.76 0.00 30.76 0.13529 0.13529 0.00000
2171.81 10.38060 10.38060 16.67344 16.67 0.00 16.67 4.82279 4.82279 0.00000
2179.75 10.27487 10.27487 3.60624 3.61 0.00 3.61 9.07279 9.07279 0.00000
2187.06 10.18091 10.18091 13.44935 13.45 0.00 13.45 5.69779 5.69779 0.00000
2194.51 9.91130 9.91130 2.51554 2.52 0.00 2.52 9.07279 9.07279 0.00000
2202.02 9.54621 9.54621 -9.26723 -9.27 0.00 -9.27 12.63529 12.63529 0.00000
2209.75 9.36806 9.36806 -11.30172 -11.30 0.00 -11.30 13.13529 13.13529 0.00000
2217.05 8.99031 8.99031 -3.05994 -3.06 0.00 -3.06 10.01028 10.01028 0.00000
2224.52 8.73467 8.73467 -20.70186 -20.70 0.00 -20.70 15.63529 15.63529 0.00000
2232.01 8.34386 8.34386 -36.12429 -36.12 0.00 -36.12 20.38529 20.38529 0.00000
2239.73 8.00728 8.00728 -15.94650 -15.95 0.00 -15.95 13.32278 13.32278 0.00000
2247.04 7.47919 7.47919 -24.65579 -24.66 0.00 -24.66 15.69779 15.69779 0.00000
2254.56 6.74947 6.74947 -49.15746 -49.16 0.00 -49.16 23.13529 23.13529 0.00000
2262.05 6.54680 6.54680 -42.82796 -42.83 0.00 -42.83 20.82278 20.82278 0.00000
2269.72 5.98174 5.98174 -56.89812 -56.90 0.00 -56.90 24.94778 24.94778 0.00000
2277.05 5.25011 5.25011 -48.21803 -48.22 0.00 -48.22 21.32279 21.32279 0.00000
2284.52 4.83576 4.83576 -62.02358 -62.02 0.00 -62.02 25.51028 25.51028 0.00000
2292.01 4.27746 4.27746 -45.88597 -45.89 0.00 -45.89 19.57279 19.57279 0.00000
2299.74 3.62219 3.62219 -58.91431 -58.91 0.00 -58.91 23.26029 23.26029 0.00000
2307.03 2.99760 2.99760 -80.10056 -80.10 0.00 -80.10 29.69779 29.69779 0.00000
2314.52 2.38252 2.38252 -68.07080 -68.07 0.00 -68.07 25.07279 25.07279 0.00000
2322.05 1.83502 1.83502 -51.52580 -51.53 0.00 -51.53 19.01029 19.01029 0.00000
2329.74 1.16372 1.16372 -81.10219 -81.10 0.00 -81.10 28.19779 28.19779 0.00000
2337.04 0.49371 0.49371 -95.67476 -95.67 0.00 -95.67 32.38529 32.38529 0.00000
2344.31 -0.00401 -0.00401 -81.79290 -81.79 0.00 -81.79 27.26029 27.26029 0.00000
2352.02 -0.62958 -0.62958 -64.16960 -64.17 0.00 -64.17 20.76028 20.76028 0.00000
2359.72 -1.33789 -1.33789 -82.23203 -82.23 0.00 -82.23 26.07278 26.07278 0.00000
2367.01 -1.88434 -1.88434 -108.80890 -108.81 0.00 -108.81 34.38529 34.38529 0.00000
2374.54 -2.25568 -2.25568 -70.73541 -70.74 0.00 -70.74 21.32279 21.32279 0.00000
